# E (eV) pdos(E) 
 -8.917  0.463E-03
 -8.817  0.340E+02
 -8.717  0.516E+00
 -8.617  0.831E-12
 -8.517  0.307E-06
 -8.417  0.584E+01
 -8.317  0.755E+02
 -8.217  0.308E-02
 -8.117  0.132E-17
 -8.017  0.000E+00
 -7.917  0.000E+00
 -7.817  0.000E+00
 -7.717  0.000E+00
 -7.617  0.000E+00
 -7.517  0.000E+00
 -7.417  0.000E+00
 -7.317  0.000E+00
 -7.217  0.000E+00
 -7.117  0.000E+00
 -7.017  0.000E+00
 -6.917  0.000E+00
 -6.817  0.000E+00
 -6.717  0.000E+00
 -6.617  0.000E+00
 -6.517  0.000E+00
 -6.417  0.241E-37
 -6.317  0.643E-15
 -6.217  0.411E-04
 -6.117  0.296E-02
 -6.017  0.571E-02
 -5.917  0.429E-02
 -5.817  0.500E-02
 -5.717  0.564E-02
 -5.617  0.675E-02
 -5.517  0.414E-02
 -5.417  0.150E-01
 -5.317  0.124E-01
 -5.217  0.302E-02
 -5.117  0.240E-02
 -5.017  0.696E-02
 -4.917  0.195E-01
 -4.817  0.177E-01
 -4.717  0.205E-01
 -4.617  0.236E-01
 -4.517  0.113E-02
 -4.417  0.156E-01
 -4.317  0.102E-02
 -4.217  0.910E-03
 -4.117  0.172E-01
 -4.017  0.184E-01
 -3.917  0.124E+00
 -3.817  0.120E-04
 -3.717  0.136E-19
 -3.617  0.000E+00
 -3.517  0.000E+00
 -3.417  0.000E+00
 -3.317  0.000E+00
 -3.217  0.000E+00
 -3.117  0.000E+00
 -3.017  0.000E+00
 -2.917  0.000E+00
 -2.817  0.000E+00
 -2.717  0.000E+00
 -2.617  0.000E+00
 -2.517  0.000E+00
 -2.417  0.000E+00
 -2.317  0.000E+00
 -2.217  0.000E+00
 -2.117  0.000E+00
 -2.017  0.000E+00
 -1.917  0.000E+00
 -1.817  0.000E+00
 -1.717  0.000E+00
 -1.617  0.000E+00
 -1.517  0.000E+00
 -1.417  0.000E+00
 -1.317  0.000E+00
 -1.217  0.000E+00
 -1.117  0.000E+00
 -1.017  0.000E+00
 -0.917  0.000E+00
 -0.817  0.000E+00
 -0.717  0.000E+00
 -0.617  0.261E-27
 -0.517  0.414E-09
 -0.417  0.205E-02
 -0.317  0.109E-02
 -0.217  0.201E-02
 -0.117  0.183E-02
 -0.017  0.284E-03
  0.083  0.474E-03
  0.183  0.537E-03
  0.283  0.892E-03
  0.383  0.492E-03
  0.483  0.111E-02
  0.583  0.106E-03
  0.683  0.424E-03
  0.783  0.188E-02
  0.883  0.711E-08
  0.983  0.596E-04
  1.083  0.229E-02
  1.183  0.495E-09
  1.283  0.480E-05
  1.383  0.371E-02
  1.483  0.109E-05
  1.583  0.920E-10
  1.683  0.906E-03
  1.783  0.158E-02
  1.883  0.805E-11
  1.983  0.488E-07
  2.083  0.160E-02
  2.183  0.128E-03
  2.283  0.669E-15
  2.383  0.121E-04
  2.483  0.405E-02
  2.583  0.199E-02
  2.683  0.119E-02
  2.783  0.660E-03
  2.883  0.253E-02
  2.983  0.166E-03
  3.083  0.520E-03
  3.183  0.124E-03
  3.283  0.138E-02
  3.383  0.278E-02
  3.483  0.146E-02
  3.583  0.208E-02
  3.683  0.277E-02
  3.783  0.303E-02
  3.883  0.240E-02
  3.983  0.205E-02
  4.083  0.333E-02
  4.183  0.347E-02
  4.283  0.957E-03
  4.383  0.116E-02
  4.483  0.239E-02
  4.583  0.116E-02
  4.683  0.869E-03
  4.783  0.312E-02
  4.883  0.625E-03
  4.983  0.143E-02
  5.083  0.437E-02
  5.183  0.195E-02
  5.283  0.587E-02
  5.383  0.565E-02
  5.483  0.328E-02
  5.583  0.250E-02
  5.683  0.706E-02
  5.783  0.532E-02
  5.883  0.496E-02
  5.983  0.116E-01
  6.083  0.768E-02
  6.183  0.482E-02
  6.283  0.108E-01
  6.383  0.189E-05
  6.483  0.297E-20
  6.583  0.488E-06
  6.683  0.391E-03
  6.783  0.430E-04
  6.883  0.343E-07
  6.983  0.487E-03
  7.083  0.807E-03
  7.183  0.353E-03
  7.283  0.232E-03
  7.383  0.122E-03
  7.483  0.351E-03
  7.583  0.497E-03
  7.683  0.176E-02
  7.783  0.492E-03
  7.883  0.957E-03
  7.983  0.875E-03
  8.083  0.384E-03
  8.183  0.907E-03
  8.283  0.149E-02
  8.383  0.649E-03
  8.483  0.114E-02
  8.583  0.111E-02
  8.683  0.567E-03
  8.783  0.671E-03
  8.883  0.386E-03
  8.983  0.425E-04
  9.083  0.227E-03
  9.183  0.250E-03
  9.283  0.329E-03
  9.383  0.148E-03
  9.483  0.182E-03
  9.583  0.201E-03
  9.683  0.165E-03
  9.783  0.496E-03
  9.883  0.340E-03
  9.983  0.121E-02
 10.083  0.627E-03
 10.183  0.348E-03
 10.283  0.790E-03
 10.383  0.580E-03
 10.483  0.408E-03
 10.583  0.548E-03
 10.683  0.485E-03
 10.783  0.186E-02
 10.883  0.148E-02
 10.983  0.171E-03
 11.083  0.596E-03
 11.183  0.377E-03
 11.283  0.306E-03
 11.383  0.450E-03
 11.483  0.448E-03
 11.583  0.160E-03
 11.683  0.389E-03
 11.783  0.173E-03
 11.883  0.382E-03
 11.983  0.125E-03
 12.083  0.162E-04
 12.183  0.837E-04
 12.283  0.936E-04
 12.383  0.248E-03
 12.483  0.994E-04
 12.583  0.201E-03
 12.683  0.692E-04
 12.783  0.683E-04
 12.883  0.301E-03
 12.983  0.127E-03
 13.083  0.150E-03
 13.183  0.298E-04
 13.283  0.300E-03
 13.383  0.186E-03
 13.483  0.922E-04
 13.583  0.113E-03
 13.683  0.165E-03
 13.783  0.661E-04
 13.883  0.250E-03
 13.983  0.117E-05
 14.083  0.297E-04
 14.183  0.309E-04
 14.283  0.157E-03
 14.383  0.636E-04
 14.483  0.106E-06
 14.583  0.359E-04
 14.683  0.167E-03
 14.783  0.752E-09
 14.883  0.604E-04
 14.983  0.106E-03
 15.083  0.752E-04
 15.183  0.218E-04
 15.283  0.113E-04
 15.383  0.699E-04
 15.483  0.842E-05
 15.583  0.119E-04
 15.683  0.894E-04
 15.783  0.326E-04
 15.883  0.804E-04
 15.983  0.791E-04
 16.083  0.163E-08
